SF_Version 0.9.3
03-Sep-2024 23:12:15
Temp(K) Pressure(MPa) Temp(K) Pressure(MPa)  Points 
0.9989 0.1000 238.2371 209.8850 2793.0000 
###########################################################
D H (J/kg)  D S (J/(K*kg)
-625596.0645 -3516.4351
-625174.9398 -3516.4351
-624753.8297 -3516.4351
-624332.7343 -3516.4351
-623911.6534 -3516.4351
-623490.5871 -3516.4351
-623069.5355 -3516.4351
-622648.4984 -3516.4350
-622227.4759 -3516.4350
-621806.4680 -3516.4350
-621385.4747 -3516.4350
-620964.4959 -3516.4350
-620543.5317 -3516.4350
-620122.5821 -3516.4350
-619701.6471 -3516.4349
-619280.7266 -3516.4349
-618859.8207 -3516.4349
-618438.9293 -3516.4349
-618018.0525 -3516.4349
-617597.1902 -3516.4349
-617176.3425 -3516.4348
-616755.5093 -3516.4348
-616334.6906 -3516.4348
-615913.8865 -3516.4348
-615493.0969 -3516.4348
-615072.3218 -3516.4347
-614651.5613 -3516.4347
-614230.8152 -3516.4347
-613810.0837 -3516.4347
-613389.3667 -3516.4346
-612968.6642 -3516.4346
-612547.9762 -3516.4346
-612127.3027 -3516.4346
-611706.6437 -3516.4346
-611285.9992 -3516.4345
-610865.3691 -3516.4345
-610444.7536 -3516.4345
-610024.1525 -3516.4345
-609603.5660 -3516.4344
-609182.9938 -3516.4344
-608762.4362 -3516.4344
-608341.8930 -3516.4343
-607921.3643 -3516.4343
-607500.8501 -3516.4343
-607080.3503 -3516.4343
-606659.8649 -3516.4342
-606239.3940 -3516.4342
-605818.9376 -3516.4342
-605398.4956 -3516.4341
-604978.0680 -3516.4341
-604557.6549 -3516.4341
-604137.2562 -3516.4341
-603716.8719 -3516.4340
-603296.5020 -3516.4340
-602876.1466 -3516.4340
-602455.8056 -3516.4339
-602035.4790 -3516.4339
-601615.1668 -3516.4338
-601194.8690 -3516.4338
-189.1037 -189.1036
-208.0146 -189.1035
-226.9247 -189.1030
-245.8340 -189.1021
-264.7420 -189.1006
-283.6486 -189.0986
-300.7514 -189.0961
-302.5534 -189.0958
-321.4576 -189.0923
-340.3593 -189.0878
-359.2579 -189.0824
-378.1530 -189.0759
-397.0442 -189.0683
-414.3755 -189.0603
-415.9310 -189.0595
-434.8145 -189.0494
-453.6924 -189.0380
-472.5643 -189.0252
-491.4295 -189.0109
-510.2875 -188.9951
-527.8537 -188.9790
-529.1377 -188.9777
-547.9811 -188.9588
-566.8154 -188.9381
-585.6401 -188.9157
-604.4544 -188.8916
-623.2577 -188.8658
-641.0924 -188.8395
-642.0495 -188.8381
-660.8307 -188.8086
-679.5990 -188.7772
-698.3537 -188.7439
-717.0943 -188.7087
-735.8202 -188.6717
-753.9917 -188.6338
-754.5307 -188.6327
-773.2268 -188.5917
-791.9064 -188.5489
-810.5688 -188.5041
-829.2135 -188.4574
-847.8399 -188.4087
-866.4475 -188.3582
-866.4559 -188.3581
-885.0375 -188.3057
-903.6077 -188.2514
-922.1577 -188.1952
-940.6870 -188.1372
-959.1952 -188.0773
-977.6819 -188.0157
-978.4047 -188.0133
-996.1484 -187.9524
-1014.5929 -187.8874
-1033.0150 -187.8207
-1051.4144 -187.7524
-1069.7910 -187.6825
-1088.1445 -187.6111
-1089.7839 -187.6047
-1106.4765 -187.5383
-1124.7854 -187.4641
-1143.0711 -187.3885
-1161.3335 -187.3117
-1179.5727 -187.2336
-1197.7888 -187.1545
-1200.5772 -187.1422
-1215.9832 -187.0742
-1234.1548 -186.9930
-1252.3037 -186.9108
-1270.4298 -186.8277
-1288.5335 -186.7439
-1306.6149 -186.6592
-1310.8091 -186.6395
-1324.6756 -186.5739
-1342.7149 -186.4880
-1360.7327 -186.4016
-1378.7293 -186.3146
-1396.7050 -186.2272
-1414.6603 -186.1395
-1420.5342 -186.1107
-1432.5965 -186.0514
-1450.5135 -185.9631
-1468.4111 -185.8747
-1486.2898 -185.7861
-1504.1500 -185.6974
-1521.9920 -185.6087
-1529.8309 -185.5698
-1539.8175 -185.5201
-1557.6265 -185.4316
-1575.4190 -185.3433
-1593.1954 -185.2551
-1610.9564 -185.1673
-1628.7023 -185.0798
-1638.7974 -185.0301
-1646.4347 -184.9926
-1664.1543 -184.9059
-1681.8607 -184.8197
-1699.5547 -184.7341
-1717.2368 -184.6490
-1734.9079 -184.5646
-1747.5526 -184.5046
-1752.5689 -184.4809
-1770.2214 -184.3980
-1787.8648 -184.3158
-1805.4999 -184.2346
-1823.1275 -184.1542
-1840.7482 -184.0748
-1856.2349 -184.0058
-1858.3631 -183.9963
-1875.9742 -183.9190
-1893.5807 -183.8427
-1911.1836 -183.7675
-1928.7835 -183.6936
-1946.3814 -183.6208
-1963.9780 -183.5493
-1964.9980 -183.5452
-1981.5758 -183.4792
-1999.1740 -183.4104
-2016.7734 -183.3429
-2034.3750 -183.2769
-2051.9794 -183.2124
-2069.5877 -183.1493
-2074.0061 -183.1338
-2087.2018 -183.0878
-2104.8217 -183.0279
-2122.4479 -182.9695
-2140.0813 -182.9128
-2157.7226 -182.8578
-2175.3727 -182.8044
-2183.4276 -182.7806
-2193.0332 -182.7527
-2210.7048 -182.7028
-2228.3876 -182.6546
-2246.0823 -182.6082
-2263.7897 -182.5636
-2281.5107 -182.5208
-2293.4236 -182.4931
-2299.2464 -182.4799
-2316.9982 -182.4407
-2334.7658 -182.4035
-2352.5498 -182.3681
-2370.3511 -182.3346
-2388.1702 -182.3030
-2404.1417 -182.2764
-2406.0082 -182.2733
-2423.8669 -182.2456
-2441.7456 -182.2197
-2459.6450 -182.1958
-2477.5656 -182.1739
-2495.5082 -182.1538
-2513.4734 -182.1357
-2515.7132 -182.1336
-2531.4632 -182.1196
-2549.4770 -182.1054
-2567.5152 -182.0932
-2585.5783 -182.0829
-2603.6670 -182.0746
-2621.7818 -182.0682
-2628.2503 -182.0663
-2639.9242 -182.0637
-2658.0943 -182.0612
-2676.2920 -182.0606
-2694.5178 -182.0619
-2712.7722 -182.0652
-2731.0556 -182.0703
-2741.8435 -182.0743
-2749.3691 -182.0774
-2767.7135 -182.0864
-2786.0880 -182.0972
-2804.4933 -182.1099
-2822.9295 -182.1244
-2841.3971 -182.1408
-2856.5583 -182.1556
-2859.8966 -182.1590
-2878.4295 -182.1790
-2896.9948 -182.2009
-2915.5926 -182.2245
-2934.2232 -182.2498
-2952.8870 -182.2769
-2971.5841 -182.3058
-2972.4352 -182.3071
-2990.3163 -182.3363
-3009.0824 -182.3686
-3027.8823 -182.4025
-3046.7164 -182.4380
-3065.5847 -182.4752
-3084.4874 -182.5140
-3089.4897 -182.5246
-3103.4257 -182.5544
-3122.3990 -182.5964
-3141.4070 -182.6399
-3160.4496 -182.6849
-3179.5270 -182.7314
-3198.6391 -182.7794
-3207.7124 -182.8026
-3217.7869 -182.8288
-3236.9703 -182.8796
-3256.1884 -182.9319
-3275.4414 -182.9855
-3294.7292 -183.0405
-3314.0516 -183.0967
-3327.0726 -183.1354
-3333.4093 -183.1543
-3352.8028 -183.2132
-3372.2307 -183.2733
-3391.6931 -183.3347
-3411.1899 -183.3972
-3430.7209 -183.4610
-3447.5233 -183.5166
-3450.2863 -183.5259
-3469.8870 -183.5919
-3489.5216 -183.6590
-3509.1898 -183.7271
-3528.8915 -183.7964
-3548.6265 -183.8666
-3568.3946 -183.9379
-3569.0026 -183.9401
-3588.1972 -184.0101
-3608.0326 -184.0832
-3627.9004 -184.1573
-3647.8004 -184.2323
-3667.7325 -184.3081
-3687.6964 -184.3848
-3691.4351 -184.3992
-3707.6931 -184.4623
-3727.7213 -184.5406
-3747.7806 -184.6197
-3767.8706 -184.6995
-3787.9910 -184.7800
-3808.1415 -184.8612
-3814.7372 -184.8879
-3828.3230 -184.9431
-3848.5345 -185.0256
-3868.7753 -185.1088
-3889.0449 -185.1926
-3909.3430 -185.2769
-3929.6694 -185.3617
-3938.8180 -185.4001
-3950.0245 -185.4471
-3970.4079 -185.5330
-3990.8184 -185.6194
-4011.2558 -185.7062
-4031.7195 -185.7935
-4052.2093 -185.8811
-4063.5804 -185.9299
-4072.7256 -185.9692
-4093.2681 -186.0576
-4113.8355 -186.1463
-4134.4275 -186.2354
-4155.0437 -186.3248
-4175.6836 -186.4144
-4188.9253 -186.4720
-4196.3476 -186.5043
-4217.0356 -186.5945
-4237.7463 -186.6848
-4258.4791 -186.7753
-4279.2338 -186.8661
-4300.0099 -186.9569
-4314.7534 -187.0214
-4320.8074 -187.0479
-4341.6267 -187.1390
-4362.4663 -187.2303
-4383.3256 -187.3216
-4404.2042 -187.4129
-4425.1018 -187.5043
-4440.9665 -187.5736
-4446.0184 -187.5957
-4466.9543 -187.6871
-4487.9080 -187.7785
-4508.8790 -187.8699
-4529.8668 -187.9612
-4550.8712 -188.0525
-4567.4689 -188.1245
-4571.8920 -188.1437
-4592.9297 -188.2348
-4613.9827 -188.3258
-4635.0505 -188.4166
-4656.1328 -188.5074
-4677.2291 -188.5979
-4694.1691 -188.6705
-4698.3394 -188.6883
-4719.4642 -188.7785
-4740.6018 -188.8685
-4761.7518 -188.9584
-4782.9138 -189.0479
-4804.0874 -189.1373
-4820.9798 -189.2083
-4825.2725 -189.2264
-4846.4697 -189.3152
-4867.6773 -189.4037
-4888.8948 -189.4920
-4910.1219 -189.5800
-4931.3582 -189.6676
-4947.8182 -189.7353
-4952.6036 -189.7549
-4973.8587 -189.8419
-4995.1217 -189.9285
-5016.3922 -190.0148
-5037.6699 -190.1007
-5058.9544 -190.1862
-5074.6050 -190.2488
-5080.2456 -190.2714
-5101.5440 -190.3561
-5122.8481 -190.4404
-5144.1572 -190.5243
-5165.4712 -190.6078
-5186.7896 -190.6908
-5201.2650 -190.7469
-5208.1125 -190.7733
-5229.4402 -190.8554
-5250.7711 -190.9371
-5272.1049 -191.0182
-5293.4411 -191.0989
-5314.7795 -191.1791
-5327.7275 -191.2275
-5336.1202 -191.2588
-5357.4633 -191.3379
-5378.8074 -191.4166
-5400.1520 -191.4947
-5421.4969 -191.5723
-5442.8417 -191.6493
-5453.9263 -191.6891
-5464.1868 -191.7258
-5485.5319 -191.8018
-5506.8757 -191.8772
-5528.2180 -191.9520
-5549.5584 -192.0262
-5570.8965 -192.0999
-5579.7993 -192.1304
-5592.2329 -192.1729
-5613.5671 -192.2454
-5634.8980 -192.3173
-5656.2252 -192.3886
-5677.5484 -192.4592
-5698.8673 -192.5293
-5705.2895 -192.5503
-5720.1827 -192.5987
-5741.4936 -192.6675
-5762.7992 -192.7357
-5784.0991 -192.8033
-5805.3931 -192.8702
-5826.6808 -192.9364
-5830.3443 -192.9478
-5847.9634 -193.0021
-5869.2393 -193.0670
-5890.5079 -193.1314
-5911.7691 -193.1950
-5933.0224 -193.2580
-5954.2676 -193.3204
-5954.9154 -193.3223
-5975.5060 -193.3820
-5996.7358 -193.4431
-6017.9565 -193.5034
-6039.1680 -193.5630
-6060.3699 -193.6220
-6078.9595 -193.6732
-6081.5622 -193.6803
-6102.7458 -193.7379
-6123.9191 -193.7949
-6145.0817 -193.8511
-6166.2333 -193.9067
-6187.3738 -193.9615
-6202.4375 -194.0002
-6208.5033 -194.0157
-6229.6223 -194.0692
-6250.7294 -194.1220
-6271.8242 -194.1741
-6292.9065 -194.2255
-6313.9761 -194.2762
-6325.3145 -194.3032
-6335.0335 -194.3262
-6356.0786 -194.3755
-6377.1103 -194.4241
-6398.1283 -194.4719
-6419.1323 -194.5191
-6440.1221 -194.5656
-6447.5587 -194.5819
-6461.0987 -194.6114
-6482.0612 -194.6565
-6503.0088 -194.7008
-6523.9414 -194.7445
-6544.8586 -194.7874
-6565.7603 -194.8297
-6569.1410 -194.8364
-6586.6477 -194.8712
-6607.5195 -194.9120
-6628.3750 -194.9522
-6649.2141 -194.9916
-6670.0366 -195.0303
-6690.0353 -195.0668
-6690.8424 -195.0683
-6711.6328 -195.1056
-6732.4060 -195.1422
-6753.1618 -195.1781
-6773.8999 -195.2132
-6794.6202 -195.2477
-6810.2178 -195.2732
-6815.3230 -195.2815
-6836.0088 -195.3145
-6856.6763 -195.3469
-6877.3252 -195.3785
-6897.9553 -195.4095
-6918.5665 -195.4397
-6929.6672 -195.4557
-6939.1594 -195.4693
-6959.7339 -195.4981
-6980.2890 -195.5263
-7000.8244 -195.5537
-7021.3400 -195.5805
-7041.8356 -195.6065
-7048.3647 -195.6147
-7062.3123 -195.6319
-7082.7692 -195.6566
-7103.2056 -195.6806
-7123.6214 -195.7039
-7144.0164 -195.7265
-7164.3905 -195.7484
-7166.2935 -195.7504
-7184.7451 -195.7696
-7205.0785 -195.7901
-7225.3906 -195.8100
-7245.6811 -195.8292
-7265.9500 -195.8477
-7283.4388 -195.8631
-7286.1972 -195.8655
-7306.4240 -195.8827
-7326.6287 -195.8991
-7346.8112 -195.9149
-7366.9713 -195.9301
-7387.1089 -195.9445
-7399.7878 -195.9533
-7407.2245 -195.9583
-7427.3184 -195.9714
-7447.3894 -195.9839
-7467.4375 -195.9957
-7487.4624 -196.0068
-7507.4641 -196.0173
-7515.3299 -196.0213
-7527.4435 -196.0272
-7547.4001 -196.0363
-7567.3330 -196.0449
-7587.2423 -196.0527
-7607.1278 -196.0600
-7626.9894 -196.0666
-7630.0556 -196.0675
-7646.8284 -196.0725
-7666.6435 -196.0778
-7686.4344 -196.0825
-7706.2010 -196.0865
-7725.9432 -196.0899
-7743.9575 -196.0925
-7745.6611 -196.0927
-7765.3559 -196.0948
-7785.0259 -196.0963
-7804.6713 -196.0972
-7824.2917 -196.0975
-7843.8872 -196.0972
-7857.0296 -196.0966
-7863.4582 -196.0962
-7883.0052 -196.0946
-7902.5270 -196.0925
-7922.0235 -196.0897
-7941.4947 -196.0863
-7960.9404 -196.0823
-7969.2676 -196.0804
-7980.3616 -196.0777
-7999.7580 -196.0725
-8019.1287 -196.0667
-8038.4736 -196.0603
-8057.7928 -196.0533
-8077.0861 -196.0458
-8080.6681 -196.0443
-8096.3549 -196.0376
-8115.5981 -196.0289
-8134.8152 -196.0196
-8154.0062 -196.0097
-8173.1711 -195.9993
-8191.2293 -195.9889
-8192.3098 -195.9883
-8211.4239 -195.9767
-8230.5116 -195.9645
-8249.5730 -195.9518
-8268.6080 -195.9386
-8287.6165 -195.9247
-8300.9504 -195.9147
-8306.5989 -195.9103
-8325.5561 -195.8954
-8344.4866 -195.8799
-8363.3904 -195.8639
-8382.2676 -195.8474
-8401.1180 -195.8302
-8409.8315 -195.8222
-8419.9426 -195.8126
-8438.7412 -195.7944
-8457.5129 -195.7757
-8476.2577 -195.7565
-8494.9756 -195.7367
-8513.6666 -195.7165
-8517.8738 -195.7118
-8532.3320 -195.6957
-8550.9707 -195.6744
-8569.5824 -195.6525
-8588.1670 -195.6302
-8606.7246 -195.6074
-8625.0796 -195.5842
-8625.2550 -195.5840
-8643.7600 -195.5602
-8662.2379 -195.5358
-8680.6886 -195.5110
-8699.1121 -195.4856
-8717.5084 -195.4598
-8731.4516 -195.4399
-8735.8779 -195.4335
-8754.2214 -195.4067
-8772.5377 -195.3794
-8790.8267 -195.3517
-8809.0884 -195.3234
-8827.3228 -195.2947
-8836.9938 -195.2793
-8845.5308 -195.2656
-8863.7123 -195.2359
-8881.8664 -195.2058
-8899.9933 -195.1753
-8918.0928 -195.1442
-8936.1650 -195.1128
-8941.7104 -195.1030
-8954.2111 -195.0808
-8972.2302 -195.0485
-8990.2221 -195.0156
-9008.1866 -194.9824
-9026.1238 -194.9487
-9044.0336 -194.9145
-9045.6067 -194.9115
-9061.9176 -194.8799
-9079.7744 -194.8449
-9097.6039 -194.8095
-9115.4060 -194.7736
-9133.1808 -194.7373
-9148.6884 -194.7053
-9150.9285 -194.7006
-9168.6504 -194.6635
-9186.3450 -194.6259
-9204.0122 -194.5880
-9221.6522 -194.5496
-9239.2649 -194.5108
-9250.9617 -194.4848
-9256.8509 -194.4717
-9274.4108 -194.4321
-9291.9434 -194.3921
-9309.4489 -194.3517
-9326.9271 -194.3110
-9344.3781 -194.2698
-9352.4333 -194.2507
-9361.8028 -194.2283
-9379.2011 -194.1863
-9396.5723 -194.1440
-9413.9164 -194.1013
-9431.2334 -194.0583
-9448.5232 -194.0148
-9453.1105 -194.0032
-9465.7873 -193.9710
-9483.0247 -193.9269
-9500.2351 -193.8823
-9517.4185 -193.8374
-9534.5749 -193.7922
-9551.7043 -193.7465
-9553.0006 -193.7431
-9568.8084 -193.7006
-9585.8857 -193.6542
-9602.9361 -193.6076
-9619.9596 -193.5605
-9636.9563 -193.5132
-9652.1116 -193.4706
-9653.9264 -193.4655
-9670.8711 -193.4174
-9687.7892 -193.3690
-9704.6805 -193.3203
-9721.5450 -193.2713
-9738.3830 -193.2219
-9750.4514 -193.1862
-9755.1947 -193.1722
-9771.9811 -193.1221
-9788.7408 -193.0718
-9805.4740 -193.0211
-9822.1807 -192.9701
-9838.8610 -192.9188
-9848.0285 -192.8905
-9855.5155 -192.8672
-9872.1446 -192.8153
-9888.7472 -192.7631
-9905.3236 -192.7106
-9921.8737 -192.6577
-9938.3975 -192.6046
-9944.8519 -192.5837
-9954.8961 -192.5512
-9971.3692 -192.4975
-9987.8161 -192.4434
-10004.2370 -192.3892
-10020.6318 -192.3346
-10037.0006 -192.2797
-10040.9309 -192.2665
-10053.3446 -192.2246
-10069.6632 -192.1691
-10085.9559 -192.1134
-10102.2228 -192.0574
-10118.4639 -192.0012
-10134.6792 -191.9447
-10136.2757 -191.9391
-10150.8703 -191.8879
-10167.0360 -191.8308
-10183.1761 -191.7735
-10199.2906 -191.7160
-10215.3796 -191.6581
-10230.8965 -191.6020
-10231.4432 -191.6001
-10247.4830 -191.5417
-10263.4975 -191.4831
-10279.4867 -191.4243
-10295.4506 -191.3652
-10311.3894 -191.3059
-10324.8042 -191.2557
-10327.3033 -191.2464
-10343.1934 -191.1866
-10359.0586 -191.1265
-10374.8987 -191.0663
-10390.7140 -191.0058
-10406.5044 -190.9450
-10418.0099 -190.9006
-10422.2704 -190.8841
-10438.0129 -190.8229
-10453.7307 -190.7615
-10469.4238 -190.6999
-10485.0923 -190.6380
-10500.7364 -190.5760
-10510.5253 -190.5370
-10516.3566 -190.5137
-10531.9534 -190.4512
-10547.5258 -190.3885
-10563.0740 -190.3256
-10578.5979 -190.2625
-10594.0977 -190.1992
-10602.3623 -190.1654
-10609.5741 -190.1357
-10625.0273 -190.0720
-10640.4565 -190.0081
-10655.8619 -189.9440
-10671.2433 -189.8798
-10686.6010 -189.8153
-10693.5329 -189.7861
-10701.9358 -189.7506
-10717.2477 -189.6858
-10732.5359 -189.6208
-10747.8006 -189.5555
-10763.0418 -189.4902
-10778.2596 -189.4246
-10784.0495 -189.3996
-10793.4551 -189.3589
-10808.6278 -189.2929
-10823.7773 -189.2269
-10838.9037 -189.1606
-10854.0069 -189.0942
-10869.0872 -189.0276
-10873.9247 -189.0062
-10884.1455 -188.9609
-10899.1815 -188.8939
-10914.1946 -188.8269
-10929.1849 -188.7597
-10944.1526 -188.6923
-10959.0975 -188.6247
-10963.1711 -188.6063
-10974.0211 -188.5571
-10988.9226 -188.4892
-11003.8017 -188.4212
-11018.6584 -188.3531
-11033.4927 -188.2848
-11048.3048 -188.2164
-11051.8015 -188.2002
-11063.0960 -188.1479
-11077.8654 -188.0792
-11092.6128 -188.0104
-11107.3382 -187.9414
-11122.0416 -187.8723
-11136.7233 -187.8031
-11139.8287 -187.7884
-11151.3844 -187.7337
-11166.0241 -187.6643
-11180.6422 -187.5946
-11195.2386 -187.5249
-11209.8136 -187.4551
-11224.3671 -187.3851
-11227.2655 -187.3711
-11238.9005 -187.3150
-11253.4130 -187.2448
-11267.9041 -187.1745
-11282.3741 -187.1040
-11296.8230 -187.0335
-11311.2508 -186.9628
-11314.1246 -186.9487
-11325.6589 -186.8921
-11340.0464 -186.8212
-11354.4131 -186.7502
-11368.7590 -186.6791
-11383.0843 -186.6079
-11397.3888 -186.5366
-11400.4189 -186.5215
-11411.6741 -186.4653
-11425.9392 -186.3938
-11440.1839 -186.3222
-11454.4083 -186.2505
-11468.6123 -186.1788
-11482.7962 -186.1069
-11486.1618 -186.0898
-11496.9611 -186.0350
-11511.1063 -185.9629
-11525.2316 -185.8908
-11539.3369 -185.8186
-11553.4223 -185.7463
-11567.4880 -185.6740
-11571.3667 -185.6540
-11581.5352 -185.6015
-11595.5631 -185.5290
-11609.5715 -185.4564
-11623.5603 -185.3837
-11637.5298 -185.3110
-11651.4800 -185.2382
-11656.0475 -185.2143
-11665.4119 -185.1653
-11679.3252 -185.0923
-11693.2193 -185.0193
-11707.0944 -184.9462
-11720.9506 -184.8730
-11734.7878 -184.7998
-11740.2183 -184.7710
-11748.6072 -184.7265
-11762.4085 -184.6532
-11776.1911 -184.5798
-11789.9551 -184.5063
-11803.7006 -184.4328
-11817.4276 -184.3592
-11823.8936 -184.3245
-11831.1372 -184.2856
-11844.8291 -184.2119
-11858.5029 -184.1382
-11872.1585 -184.0645
-11885.7961 -183.9906
-11899.4157 -183.9168
-11907.0879 -183.8751
-11913.0181 -183.8429
-11926.6035 -183.7689
-11940.1712 -183.6949
-11953.7212 -183.6209
-11967.2536 -183.5468
-11980.7685 -183.4727
-11989.8162 -183.4230
-11994.2665 -183.3986
-12007.7481 -183.3244
-12021.2125 -183.2502
-12034.6596 -183.1759
-12048.0896 -183.1017
-12061.5026 -183.0273
-12072.0935 -182.9686
-12074.8989 -182.9530
-12088.2795 -182.8787
-12101.6433 -182.8043
-12114.9904 -182.7299
-12128.3207 -182.6554
-12141.6345 -182.5810
-12153.9350 -182.5121
-12154.9319 -182.5065
-12168.2143 -182.4320
-12181.4803 -182.3575
-12194.7300 -182.2829
-12207.9635 -182.2084
-12221.1809 -182.1338
-12234.3823 -182.0593
-12235.3556 -182.0538
-12247.5691 -181.9847
-12260.7401 -181.9101
-12273.8952 -181.8355
-12287.0347 -181.7609
-12300.1584 -181.6862
-12313.2666 -181.6116
-12316.3707 -181.5939
-12326.3604 -181.5370
-12339.4392 -181.4623
-12352.5026 -181.3877
-12365.5507 -181.3130
-12378.5836 -181.2384
-12391.6013 -181.1638
-12396.9958 -181.1328
-12404.6049 -181.0891
-12417.5942 -181.0145
-12430.5685 -180.9398
-12443.5281 -180.8652
-12456.4728 -180.7906
-12469.4029 -180.7160
-12477.2463 -180.6707
-12482.3190 -180.6414
-12495.2215 -180.5668
-12508.1096 -180.4922
-12520.9832 -180.4176
-12533.8426 -180.3430
-12546.6877 -180.2685
-12557.1374 -180.2078
-12559.5190 -180.1940
-12572.3374 -180.1194
-12585.1419 -180.0449
-12597.9324 -179.9704
-12610.7090 -179.8960
-12623.4719 -179.8215
-12636.2210 -179.7471
-12636.6842 -179.7444
-12648.9580 -179.6727
-12661.6815 -179.5983
-12674.3915 -179.5239
-12687.0880 -179.4496
-12699.7713 -179.3753
-12712.4413 -179.3010
-12715.9015 -179.2807
-12725.0991 -179.2267
-12737.7443 -179.1525
-12750.3764 -179.0783
-12762.9956 -179.0041
-12775.6019 -178.9300
-12788.1953 -178.8559
-12794.8050 -178.8170
-12800.7767 -178.7818
-12813.3462 -178.7077
-12825.9032 -178.6337
-12838.4475 -178.5598
-12850.9795 -178.4858
-12863.4991 -178.4119
-12873.4099 -178.3534
-12876.0066 -178.3380
-12888.5032 -178.2642
-12900.9875 -178.1904
-12913.4598 -178.1167
-12925.9201 -178.0430
-12938.3684 -177.9693
-12950.8049 -177.8957
-12951.7317 -177.8902
-12963.2310 -177.8221
-12975.6454 -177.7486
-12988.0482 -177.6751
-13000.4395 -177.6016
-13012.8193 -177.5282
-13025.1876 -177.4549
-13029.7854 -177.4276
-13037.5455 -177.3816
-13049.8927 -177.3083
-13062.2287 -177.2351
-13074.5536 -177.1620
-13086.8674 -177.0889
-13099.1702 -177.0158
-13107.5874 -176.9658
-13111.4626 -176.9428
-13123.7451 -176.8699
-13136.0169 -176.7970
-13148.2780 -176.7242
-13160.5285 -176.6514
-13172.7684 -176.5787
-13184.9978 -176.5060
-13185.1532 -176.5051
-13197.2183 -176.4334
-13209.4285 -176.3608
-13221.6284 -176.2884
-13233.8182 -176.2159
-13245.9978 -176.1436
-13258.1673 -176.0713
-13262.4978 -176.0455
-13270.3278 -175.9990
-13282.4790 -175.9269
-13294.6203 -175.8548
-13306.7518 -175.7827
-13318.8737 -175.7107
-13330.9859 -175.6388
-13339.6376 -175.5874
-13343.0890 -175.5670
-13355.1837 -175.4952
-13367.2689 -175.4235
-13379.3448 -175.3518
-13391.4114 -175.2802
-13403.4688 -175.2087
-13415.5171 -175.1373
-13416.5880 -175.1309
-13427.5577 -175.0659
-13439.5894 -174.9946
-13451.6121 -174.9234
-13463.6260 -174.8523
-13475.6311 -174.7812
-13487.6275 -174.7102
-13493.3641 -174.6762
-13499.6160 -174.6393
-13511.5966 -174.5684
-13523.5687 -174.4976
-13535.5323 -174.4269
-13547.4876 -174.3563
-13559.4345 -174.2858
-13569.9819 -174.2235
-13571.3734 -174.2153
-13583.3053 -174.1449
-13595.2292 -174.0746
-13607.1450 -174.0044
-13619.0528 -173.9342
-13630.9526 -173.8642
-13642.8447 -173.7942
-13646.4561 -173.7729
-13654.7299 -173.7243
-13666.6079 -173.6545
-13678.4782 -173.5847
-13690.3410 -173.5151
-13702.1962 -173.4455
-13714.0439 -173.3760
-13722.8021 -173.3247
-13725.8846 -173.3066
-13737.7191 -173.2373
-13749.5462 -173.1681
-13761.3662 -173.0989
-13773.1790 -173.0299
-13784.9848 -172.9609
-13796.7835 -172.8920
-13799.0346 -172.8789
-13808.5764 -172.8232
-13820.3627 -172.7545
-13832.1421 -172.6859
-13843.9148 -172.6174
-13855.6808 -172.5489
-13867.4401 -172.4806
-13875.1680 -172.4357
-13879.1933 -172.4123
-13890.9410 -172.3442
-13902.6821 -172.2761
-13914.4169 -172.2081
-13926.1453 -172.1402
-13937.8674 -172.0724
-13949.5833 -172.0047
-13951.2169 -171.9953
-13961.2943 -171.9371
-13972.9993 -171.8696
-13984.6983 -171.8022
-13996.3914 -171.7348
-14008.0785 -171.6676
-14019.7597 -171.6005
-14027.1951 -171.5578
-14031.4356 -171.5334
-14043.1067 -171.4665
-14054.7722 -171.3996
-14066.4320 -171.3329
-14078.0862 -171.2662
-14089.7349 -171.1997
-14101.3781 -171.1332
-14103.1175 -171.1233
-14113.0172 -171.0669
-14124.6512 -171.0006
-14136.2799 -170.9344
-14147.9033 -170.8684
-14159.5217 -170.8024
-14171.1349 -170.7366
-14178.9978 -170.6920
-14182.7435 -170.6708
-14194.3481 -170.6051
-14205.9478 -170.5396
-14217.5426 -170.4741
-14229.1326 -170.4088
-14240.7179 -170.3435
-14252.2984 -170.2784
-14254.8504 -170.2640
-14263.8754 -170.2133
-14275.4482 -170.1484
-14287.0164 -170.0835
-14298.5802 -170.0188
-14310.1395 -169.9541
-14321.6945 -169.8896
-14330.6892 -169.8394
-14333.2455 -169.8252
-14344.7933 -169.7609
-14356.3370 -169.6966
-14367.8765 -169.6325
-14379.4120 -169.5685
-14390.9434 -169.5046
-14402.4709 -169.4408
-14406.5281 -169.4184
-14413.9953 -169.3771
-14425.5164 -169.3136
-14437.0337 -169.2501
-14448.5472 -169.1867
-14460.0571 -169.1235
-14471.5633 -169.0603
-14482.3810 -169.0010
-14483.0660 -168.9973
-14494.5664 -168.9343
-14506.0634 -168.8715
-14517.5570 -168.8088
-14529.0472 -168.7462
-14540.5341 -168.6837
-14552.0177 -168.6213
-14558.2610 -168.5874
-14563.4987 -168.5590
-14574.9773 -168.4968
-14586.4528 -168.4348
-14597.9253 -168.3728
-14609.3947 -168.3110
-14620.8612 -168.2493
-14632.3247 -168.1876
-14634.1821 -168.1777
-14643.7866 -168.1261
-14655.2459 -168.0647
-14666.7025 -168.0035
-14678.1563 -167.9423
-14689.6075 -167.8812
-14701.0561 -167.8203
-14710.1569 -167.7719
-14712.5024 -167.7594
-14723.9473 -167.6987
-14735.3897 -167.6381
-14746.8298 -167.5776
-14758.2675 -167.5172
-14769.7028 -167.4569
-14781.1359 -167.3968
-14786.1983 -167.3702
-14792.5676 -167.3367
-14803.9977 -167.2768
-14815.4257 -167.2170
-14826.8516 -167.1573
-14838.2755 -167.0977
-14849.6975 -167.0382
-14861.1175 -166.9788
-14862.3192 -166.9726
-14872.5368 -166.9196
-14883.9545 -166.8605
-14895.3703 -166.8014
-14906.7844 -166.7425
-14918.1968 -166.6838
-14929.6076 -166.6251
-14938.5313 -166.5793
-14941.0170 -166.5665
-14952.4260 -166.5081
-14963.8334 -166.4497
-14975.2394 -166.3915
-14986.6439 -166.3334
-14998.0470 -166.2755
-15009.4488 -166.2176
-15014.8466 -166.1902
-15020.8500 -166.1598
-15032.2506 -166.1022
-15043.6499 -166.0447
-15055.0481 -165.9873
-15066.4452 -165.9300
-15077.8412 -165.8728
-15089.2361 -165.8158
-15091.2770 -165.8056
-15100.6312 -165.7588
-15112.0255 -165.7020
-15123.4189 -165.6453
-15134.8115 -165.5887
-15146.2032 -165.5323
-15157.5941 -165.4759
-15167.8335 -165.4254
-15168.9844 -165.4197
-15180.3753 -165.3636
-15191.7654 -165.3076
-15203.1550 -165.2517
-15214.5440 -165.1959
-15225.9324 -165.1403
-15237.3203 -165.0847
-15244.5273 -165.0496
-15248.7083 -165.0293
-15260.0967 -164.9740
-15271.4848 -164.9188
-15282.8725 -164.8638
-15294.2599 -164.8088
-15305.6471 -164.7540
-15317.0341 -164.6993
-15321.3700 -164.6785
-15328.4217 -164.6447
-15339.8097 -164.5902
-15351.1977 -164.5359
-15362.5856 -164.4816
-15373.9735 -164.4275
-15385.3614 -164.3735
-15396.7494 -164.3196
-15398.3725 -164.3120
-15408.1386 -164.2659
-15419.5282 -164.2122
-15430.9180 -164.1587
-15442.3081 -164.1053
-15453.6983 -164.0520
-15465.0889 -163.9988
-15475.5456 -163.9501
-15476.4800 -163.9458
-15487.8727 -163.8928
-15499.2658 -163.8400
-15510.6594 -163.7873
-15522.0535 -163.7347
-15533.4481 -163.6823
-15544.8433 -163.6299
-15552.9001 -163.5930
-15556.2395 -163.5777
-15567.6373 -163.5256
-15579.0358 -163.4736
-15590.4351 -163.4217
-15601.8351 -163.3700
-15613.2359 -163.3184
-15624.6376 -163.2668
-15630.4467 -163.2406
-15636.0408 -163.2155
-15647.4456 -163.1642
-15658.8513 -163.1130
-15670.2581 -163.0620
-15681.6659 -163.0111
-15693.0747 -162.9603
-15704.4846 -162.9096
-15708.1958 -162.8931
-15715.8966 -162.8590
-15727.3102 -162.8086
-15738.7250 -162.7583
-15750.1410 -162.7081
-15761.5584 -162.6580
-15772.9770 -162.6080
-15784.3970 -162.5582
-15786.1577 -162.5505
-15795.8195 -162.5084
-15807.2436 -162.4588
-15818.6692 -162.4093
-15830.0963 -162.3600
-15841.5249 -162.3107
-15852.9550 -162.2616
-15864.3423 -162.2127
-15864.3868 -162.2125
-15875.8215 -162.1636
-15887.2579 -162.1149
-15898.6960 -162.0662
-15910.1358 -162.0177
-15921.5773 -161.9692
-15933.0207 -161.9209
-15942.7591 -161.8799
-15944.4661 -161.8728
-15955.9144 -161.8247
-15967.3647 -161.7767
-15978.8169 -161.7289
-15990.2711 -161.6812
-16001.7272 -161.6336
-16013.1854 -161.5861
-16021.4178 -161.5521
-16024.6460 -161.5388
-16036.1096 -161.4915
-16047.5754 -161.4444
-16059.0433 -161.3974
-16070.5134 -161.3505
-16081.9857 -161.3038
-16093.4603 -161.2571
-16100.3276 -161.2293
-16104.9377 -161.2106
-16116.4181 -161.1642
-16127.9009 -161.1179
-16139.3861 -161.0717
-16150.8737 -161.0256
-16162.3637 -160.9797
-16173.8561 -160.9339
-16179.4974 -160.9114
-16185.3517 -160.8882
-16196.8505 -160.8426
-16208.3518 -160.7971
-16219.8557 -160.7518
-16231.3622 -160.7065
-16242.8714 -160.6614
-16254.3832 -160.6164
-16258.9357 -160.5987
-16265.8985 -160.5716
-16277.4170 -160.5268
-16288.9383 -160.4821
-16300.4624 -160.4376
-16311.9893 -160.3932
-16323.5190 -160.3489
-16335.0516 -160.3047
-16338.6512 -160.2910
-16346.5880 -160.2607
-16358.1278 -160.2167
-16369.6705 -160.1729
-16381.2162 -160.1292
-16392.7649 -160.0856
-16404.3166 -160.0421
-16415.8714 -159.9987
-16418.6520 -159.9883
-16427.4303 -159.9555
-16438.9927 -159.9124
-16450.5582 -159.8694
-16462.1269 -159.8265
-16473.6988 -159.7837
-16485.2739 -159.7410
-16496.8523 -159.6985
-16498.9466 -159.6908
-16508.4351 -159.6560
-16520.0214 -159.6137
-16531.6111 -159.5715
-16543.2041 -159.5294
-16554.8006 -159.4875
-16566.4005 -159.4456
-16578.0038 -159.4039
-16579.5428 -159.3984
-16589.6118 -159.3623
-16601.2234 -159.3208
-16612.8386 -159.2794
-16624.4573 -159.2381
-16636.0797 -159.1969
-16647.7056 -159.1559
-16659.3352 -159.1149
-16660.4487 -159.1110
-16670.9697 -159.0741
-16682.6080 -159.0334
-16694.2500 -158.9928
-16705.8957 -158.9524
-16717.5452 -158.9120
-16729.1985 -158.8718
-16740.8557 -158.8316
-16741.6719 -158.8288
-16752.5179 -158.7916
-16764.1841 -158.7517
-16775.8542 -158.7119
-16787.5282 -158.6723
-16799.2061 -158.6327
-16810.8881 -158.5933
-16822.5740 -158.5539
-16823.2201 -158.5518
-16834.2652 -158.5147
-16845.9606 -158.4756
-16857.6600 -158.4366
-16869.3635 -158.3978
-16881.0712 -158.3590
-16892.7830 -158.3204
-16904.4989 -158.2818
-16905.1005 -158.2798
-16916.2204 -158.2434
-16927.9461 -158.2051
-16939.6760 -158.1669
-16951.4102 -158.1288
-16963.1488 -158.0908
-16974.8916 -158.0530
-16986.6388 -158.0152
-16987.3205 -158.0131
-16998.3916 -157.9776
-17010.1488 -157.9401
-17021.9105 -157.9027
-17033.6766 -157.8654
-17045.4472 -157.8282
-17057.2222 -157.7911
-17069.0018 -157.7542
-17069.8868 -157.7514
-17080.7870 -157.7173
-17092.5770 -157.6806
-17104.3715 -157.6440
-17116.1706 -157.6075
-17127.9743 -157.5711
-17139.7827 -157.5348
-17151.5957 -157.4986
-17152.8063 -157.4949
-17163.4146 -157.4625
-17175.2383 -157.4266
-17187.0667 -157.3907
-17198.8999 -157.3550
-17210.7379 -157.3194
-17222.5807 -157.2838
-17234.4282 -157.2484
-17236.0853 -157.2435
-17246.2818 -157.2131
-17258.1403 -157.1780
-17270.0038 -157.1429
-17281.8721 -157.1079
-17293.7454 -157.0731
-17305.6236 -157.0383
-17317.5068 -157.0037
-17319.7301 -156.9972
-17329.3960 -156.9692
-17341.2904 -156.9347
-17353.1899 -156.9004
-17365.0944 -156.8662
-17377.0039 -156.8322
-17388.9186 -156.7982
-17400.8384 -156.7643
-17403.7467 -156.7561
-17412.7642 -156.7305
-17424.6955 -156.6969
-17436.6320 -156.6634
-17448.5737 -156.6299
-17460.5206 -156.5966
-17472.4727 -156.5634
-17484.4300 -156.5303
-17488.1410 -156.5200
-17496.3935 -156.4973
-17508.3627 -156.4644
-17520.3372 -156.4316
-17532.3171 -156.3989
-17544.3022 -156.3663
-17556.2928 -156.3339
-17568.2887 -156.3015
-17572.9188 -156.2890
-17580.2908 -156.2692
-17592.2989 -156.2371
-17604.3124 -156.2051
-17616.3313 -156.1731
-17628.3558 -156.1413
-17640.3857 -156.1096
-17652.4212 -156.0780
-17658.0858 -156.0632
-17664.4629 -156.0465
-17676.5108 -156.0151
-17688.5642 -155.9838
-17700.6233 -155.9526
-17712.6879 -155.9215
-17724.7583 -155.8906
-17736.8343 -155.8597
-17743.6477 -155.8423
-17748.9165 -155.8289
-17761.0051 -155.7983
-17773.0995 -155.7677
-17785.1996 -155.7373
-17797.3055 -155.7070
-17809.4171 -155.6767
-17821.5345 -155.6466
-17829.6101 -155.6266
-17833.6582 -155.6166
-17845.7886 -155.5866
-17857.9248 -155.5568
-17870.0669 -155.5271
-17882.2149 -155.4975
-17894.3687 -155.4680
-17906.5285 -155.4386
-17915.9784 -155.4158
-17918.6946 -155.4093
-17930.8676 -155.3801
-17943.0466 -155.3510
-17955.2315 -155.3221
-17967.4225 -155.2932
-17979.6196 -155.2644
-17991.8227 -155.2357
-18002.7578 -155.2101
-18004.0320 -155.2072
-18016.2485 -155.1787
-18028.4712 -155.1503
-18040.6999 -155.1221
-18052.9349 -155.0939
-18065.1760 -155.0659
-18077.4232 -155.0379
-18089.6767 -155.0101
-18089.9537 -155.0095
-18101.9376 -154.9823
-18114.2048 -154.9547
-18126.4783 -154.9272
-18138.7580 -154.8997
-18151.0440 -154.8724
-18163.3364 -154.8451
-18175.6350 -154.8180
-18177.5709 -154.8138
-18187.9411 -154.7910
-18200.2537 -154.7641
-18212.5727 -154.7372
-18224.8981 -154.7105
-18237.2299 -154.6839
-18249.5681 -154.6574
-18261.9128 -154.6309
-18265.6146 -154.6230
-18274.2649 -154.6046
-18286.6238 -154.5784
-18298.9892 -154.5523
-18311.3611 -154.5262
-18323.7395 -154.5003
-18336.1245 -154.4745
-18348.5161 -154.4488
-18354.0895 -154.4373
-18360.9149 -154.4232
-18373.3209 -154.3976
-18385.7336 -154.3722
-18398.1528 -154.3469
-18410.5787 -154.3217
-18423.0113 -154.2966
-18435.4506 -154.2715
-18443.0003 -154.2564
-18447.8970 -154.2466
-18460.3510 -154.2218
-18472.8116 -154.1971
-18485.2791 -154.1725
-18497.7532 -154.1479
-18510.2342 -154.1235
-18522.7220 -154.0992
-18532.3515 -154.0805
-18535.2168 -154.0750
-18547.7195 -154.0508
-18560.2290 -154.0268
-18572.7454 -154.0029
-18585.2687 -153.9790
-18597.7988 -153.9553
-18610.3359 -153.9316
-18622.1477 -153.9095
-18622.8799 -153.9081
-18635.4321 -153.8847
-18647.9913 -153.8613
-18660.5574 -153.8381
-18673.1305 -153.8149
-18685.7106 -153.7918
-18698.2977 -153.7689
-18710.8919 -153.7460
-18712.3929 -153.7433
-18723.4943 -153.7233
-18736.1038 -153.7006
-18748.7205 -153.6780
-18761.3443 -153.6556
-18773.9751 -153.6332
-18786.6131 -153.6109
-18799.2583 -153.5887
-18803.0917 -153.5820
-18811.9115 -153.5666
-18824.5723 -153.5446
-18837.2403 -153.5227
-18849.9155 -153.5009
-18862.5979 -153.4792
-18875.2876 -153.4576
-18887.9845 -153.4361
-18894.2484 -153.4255
-18900.6893 -153.4147
-18913.4021 -153.3934
-18926.1222 -153.3721
-18938.8496 -153.3510
-18951.5844 -153.3300
-18964.3265 -153.3090
-18977.0760 -153.2882
-18985.8673 -153.2739
-18989.8333 -153.2674
-19002.5989 -153.2468
-19015.3719 -153.2262
-19028.1524 -153.2057
-19040.9403 -153.1854
-19053.7356 -153.1651
-19066.5385 -153.1449
-19077.9528 -153.1270
-19079.3490 -153.1248
-19092.1682 -153.1048
-19104.9949 -153.0849
-19117.8292 -153.0651
-19130.6710 -153.0454
-19143.5204 -153.0257
-19156.3775 -153.0062
-19169.2421 -152.9868
-19170.5091 -152.9849
-19182.1156 -152.9674
-19194.9968 -152.9482
-19207.8857 -152.9290
-19220.7823 -152.9100
-19233.6865 -152.8910
-19246.5985 -152.8721
-19259.5183 -152.8533
-19263.5407 -152.8475
-19272.4466 -152.8346
-19285.3832 -152.8160
-19298.3275 -152.7975
-19311.2796 -152.7791
-19324.2395 -152.7608
-19337.2073 -152.7425
-19350.1829 -152.7244
-19357.0519 -152.7148
-19363.1670 -152.7064
-19376.1596 -152.6884
-19389.1602 -152.6705
-19402.1686 -152.6528
-19415.1850 -152.6351
-19428.2094 -152.6175
-19441.2417 -152.6000
-19451.0470 -152.5869
-19454.2823 -152.5826
-19467.3318 -152.5653
-19480.3894 -152.5481
-19493.4550 -152.5309
-19506.5287 -152.5139
-19519.6104 -152.4969
-19532.7003 -152.4801
-19545.5305 -152.4637
-19545.7982 -152.4633
-19558.9055 -152.4466
-19572.0209 -152.4301
-19585.1445 -152.4136
-19598.2762 -152.3972
-19611.4161 -152.3808
-19624.5643 -152.3646
-19637.7206 -152.3485
-19640.5065 -152.3451
-19650.8861 -152.3324
-19664.0602 -152.3165
-19677.2425 -152.3006
-19690.4331 -152.2849
-19703.6320 -152.2692
-19716.8393 -152.2536
-19730.0548 -152.2381
-19735.9793 -152.2312
-19743.2794 -152.2227
-19756.5129 -152.2073
-19769.7548 -152.1921
-19783.0050 -152.1770
-19796.2637 -152.1619
-19809.5308 -152.1469
-19822.8063 -152.1320
-19831.9530 -152.1219
-19836.0907 -152.1173
-19849.3844 -152.1026
-19862.6867 -152.0879
-19875.9974 -152.0734
-19889.3166 -152.0590
-19902.6444 -152.0446
-19915.9807 -152.0304
-19928.4317 -152.0172
-19929.3257 -152.0162
-19942.6804 -152.0021
-19956.0437 -151.9881
-19969.4157 -151.9742
-19982.7962 -151.9604
-19996.1855 -151.9467
-20009.5834 -151.9331
-20022.9899 -151.9195
-20025.4195 -151.9171
-20036.4062 -151.9060
-20049.8315 -151.8927
-20063.2655 -151.8794
-20076.7082 -151.8662
-20090.1597 -151.8531
-20103.6199 -151.8400
-20117.0890 -151.8271
-20122.9203 -151.8215
-20130.5675 -151.8142
-20144.0555 -151.8015
-20157.5523 -151.7888
-20171.0579 -151.7762
-20184.5725 -151.7637
-20198.0959 -151.7513
-20211.6282 -151.7389
-20220.9383 -151.7305
-20225.1699 -151.7267
-20238.7214 -151.7145
-20252.2818 -151.7025
-20265.8512 -151.6905
-20279.4296 -151.6786
-20293.0170 -151.6668
-20306.6134 -151.6551
-20319.4776 -151.6441
-20320.2189 -151.6434
-20333.8347 -151.6319
-20347.4596 -151.6204
-20361.0935 -151.6090
-20374.7366 -151.5977
-20388.3887 -151.5865
-20402.0501 -151.5754
-20415.7205 -151.5644
-20418.5423 -151.5621
-20429.4012 -151.5534
-20443.0913 -151.5426
-20456.7906 -151.5318
-20470.4992 -151.5211
-20484.2169 -151.5105
-20497.9440 -151.5000
-20511.6803 -151.4895
-20518.1364 -151.4846
-20525.4266 -151.4792
-20539.1828 -151.4689
-20552.9483 -151.4587
-20566.7231 -151.4486
-20580.5073 -151.4386
-20594.3009 -151.4287
-20608.1039 -151.4188
-20618.2642 -151.4116
-20621.9166 -151.4091
-20635.7397 -151.3994
-20649.5722 -151.3898
-20663.4142 -151.3803
-20677.2657 -151.3709
-20691.1266 -151.3616
-20704.9971 -151.3523
-20718.8770 -151.3431
-20718.9296 -151.3431
-20732.7678 -151.3341
-20746.6682 -151.3251
-20760.5781 -151.3162
-20774.4977 -151.3073
-20788.4268 -151.2986
-20802.3656 -151.2899
-20816.3140 -151.2814
-20820.1368 -151.2790
-20830.2730 -151.2729
-20844.2420 -151.2644
-20858.2207 -151.2561
-20872.2091 -151.2479
-20886.2072 -151.2397
-20900.2151 -151.2317
-20914.2327 -151.2237
-20921.8896 -151.2193
-20928.2607 -151.2158
-20942.2992 -151.2079
-20956.3475 -151.2002
-20970.4056 -151.1925
-20984.4736 -151.1850
-20998.5514 -151.1775
-21012.6391 -151.1701
-21024.1921 -151.1641
-21026.7369 -151.1627
-21040.8457 -151.1555
-21054.9644 -151.1483
-21069.0930 -151.1413
-21083.2316 -151.1343
-21097.3802 -151.1274
-21111.5387 -151.1205
-21125.7073 -151.1138
-21127.0480 -151.1132
-21139.8870 -151.1071
-21154.0770 -151.1005
-21168.2769 -151.0940
-21182.4870 -151.0876
-21196.7071 -151.0813
-21210.9373 -151.0750
-21225.1777 -151.0689
-21230.4611 -151.0666
-21239.4290 -151.0628
-21253.6909 -151.0568
-21267.9630 -151.0509
-21282.2453 -151.0450
-21296.5378 -151.0393
-21310.8406 -151.0336
-21325.1535 -151.0280
-21334.4353 -151.0244
-21339.4772 -151.0225
-21353.8120 -151.0171
-21368.1570 -151.0117
-21382.5124 -151.0064
-21396.8781 -151.0012
-21411.2542 -150.9961
-21425.6406 -150.9911
-21438.9742 -150.9865
-21440.0375 -150.9862
-21454.4459 -150.9813
-21468.8648 -150.9765
-21483.2941 -150.9718
-21497.7338 -150.9672
-21512.1840 -150.9627
-21526.6447 -150.9582
-21541.1158 -150.9539
-21544.0817 -150.9530
-21555.5985 -150.9496
-21570.0920 -150.9454
-21584.5961 -150.9412
-21599.1107 -150.9372
-21613.6359 -150.9332
-21628.1717 -150.9293
-21642.7181 -150.9255
-21649.7616 -150.9237
-21657.2758 -150.9218
-21671.8447 -150.9181
-21686.4244 -150.9146
-21701.0147 -150.9111
-21715.6157 -150.9077
-21730.2275 -150.9044
-21744.8500 -150.9011
-21756.0179 -150.8987
-21759.4836 -150.8979
-21774.1289 -150.8949
-21788.7850 -150.8919
-21803.4519 -150.8889
-21818.1296 -150.8861
-21832.8182 -150.8833
-21847.5177 -150.8806
-21862.2280 -150.8780
-21862.8543 -150.8779
-21876.9505 -150.8755
-21891.6839 -150.8731
-21906.4283 -150.8707
-21921.1836 -150.8684
-21935.9499 -150.8662
-21950.7271 -150.8641
-21965.5154 -150.8621
-21970.2747 -150.8614
-21980.3156 -150.8601
-21995.1272 -150.8582
-22009.9499 -150.8564
-22024.7836 -150.8547
-22039.6285 -150.8530
-22054.4844 -150.8515
-22069.3515 -150.8500
-22078.2830 -150.8491
-22084.2302 -150.8486
-22099.1209 -150.8472
-22114.0227 -150.8460
-22128.9358 -150.8448
-22143.8601 -150.8437
-22158.7956 -150.8427
-22173.7423 -150.8418
-22186.8828 -150.8410
-22188.7005 -150.8409
-22203.6711 -150.8402
-22218.6530 -150.8395
-22233.6462 -150.8388
-22248.6507 -150.8383
-22263.6666 -150.8378
-22278.6939 -150.8375
-22293.7326 -150.8372
-22296.0779 -150.8371
-22308.7838 -150.8369
-22323.8466 -150.8368
-22338.9208 -150.8367
-22354.0065 -150.8367
-22369.1037 -150.8368
-22384.2124 -150.8370
-22399.3326 -150.8373
-22405.8720 -150.8374
-22414.4650 -150.8376
-22429.6096 -150.8380
-22444.7658 -150.8385
-22459.9335 -150.8390
-22475.1128 -150.8397
-22490.3038 -150.8404
-22505.5064 -150.8412
-22516.2686 -150.8418
-22520.7210 -150.8421
-22535.9482 -150.8430
-22551.1871 -150.8441
-22566.4377 -150.8452
-22581.7001 -150.8464
-22596.9742 -150.8476
-22612.2600 -150.8490
-22627.2712 -150.8504
-22627.5577 -150.8504
-22642.8684 -150.8519
-22658.1910 -150.8535
-22673.5254 -150.8551
-22688.8716 -150.8569
-22704.2297 -150.8587
-22719.5997 -150.8606
-22734.9816 -150.8625
-22738.8835 -150.8630
-22750.3764 -150.8646
-22765.7834 -150.8667
-22781.2024 -150.8689
-22796.6334 -150.8712
-22812.0764 -150.8735
-22827.5314 -150.8759
-22842.9985 -150.8785
-22851.1088 -150.8798
-22858.4782 -150.8810
-22873.9706 -150.8837
-22889.4751 -150.8864
-22904.9918 -150.8893
-22920.5205 -150.8922
-22936.0614 -150.8951
-22951.6145 -150.8982
-22963.9507 -150.9007
-22967.1800 -150.9013
-22982.7587 -150.9045
-22998.3496 -150.9078
-23013.9528 -150.9112
-23029.5682 -150.9146
-23045.1959 -150.9181
-23060.8359 -150.9217
-23076.4882 -150.9254
-23077.4126 -150.9256
-23092.1540 -150.9291
-23107.8322 -150.9329
-23123.5228 -150.9368
-23139.2258 -150.9408
-23154.9412 -150.9449
-23170.6689 -150.9490
-23186.4092 -150.9532
-23191.4980 -150.9546
-23202.1627 -150.9575
-23217.9291 -150.9618
-23233.7081 -150.9663
-23249.4995 -150.9708
-23265.3035 -150.9754
-23281.1200 -150.9800
-23296.9491 -150.9848
-23306.2104 -150.9876
-23312.7912 -150.9896
-23328.6468 -150.9945
-23344.5150 -150.9994
-23360.3958 -151.0045
-23376.2892 -151.0096
-23392.1954 -151.0148
-23408.1142 -151.0201
-23421.5531 -151.0246
-23424.0459 -151.0254
-23439.9915 -151.0309
-23455.9498 -151.0364
-23471.9209 -151.0420
-23487.9047 -151.0476
-23503.9014 -151.0533
-23519.9109 -151.0592
-23535.9333 -151.0650
-23537.5295 -151.0656
-23551.9696 -151.0710
-23568.0190 -151.0770
-23584.0813 -151.0832
-23600.1564 -151.0893
-23616.2446 -151.0956
-23632.3456 -151.1019
-23648.4597 -151.1084
-23654.1430 -151.1106
-23664.5876 -151.1149
-23680.7289 -151.1214
-23696.8833 -151.1281
-23713.0507 -151.1348
-23729.2312 -151.1416
-23745.4248 -151.1485
-23761.6314 -151.1554
-23771.3968 -151.1596
-23777.8518 -151.1624
-23794.0860 -151.1695
-23810.3334 -151.1767
-23826.5940 -151.1840
-23842.8677 -151.1913
-23859.1547 -151.1987
-23875.4549 -151.2062
-23889.2942 -151.2126
-23891.7686 -151.2137
-23908.0967 -151.2214
-23924.4380 -151.2291
-23940.7926 -151.2368
-23957.1606 -151.2447
-23973.5419 -151.2526
-23989.9366 -151.2606
-24006.3447 -151.2687
-24007.8382 -151.2695
-24022.7674 -151.2769
-24039.2036 -151.2851
-24055.6532 -151.2934
-24072.1163 -151.3018
-24088.5929 -151.3103
-24105.0830 -151.3188
-24121.5866 -151.3274
-24127.0321 -151.3302
-24138.1046 -151.3361
-24154.6366 -151.3448
-24171.1822 -151.3537
-24187.7413 -151.3626
-24204.3141 -151.3716
-24220.9005 -151.3806
-24237.5006 -151.3898
-24246.8788 -151.3949
-24254.1148 -151.3990
-24270.7436 -151.4083
-24287.3860 -151.4176
-24304.0421 -151.4270
-24320.7120 -151.4366
-24337.3957 -151.4461
-24354.0931 -151.4558
-24367.3816 -151.4635
-24370.8046 -151.4655
-24387.5310 -151.4753
-24404.2712 -151.4852
-24421.0253 -151.4952
-24437.7933 -151.5052
-24454.5751 -151.5153
-24471.3709 -151.5255
-24488.1806 -151.5358
-24488.5433 -151.5360
-24505.0055 -151.5461
-24521.8445 -151.5565
-24538.6974 -151.5670
-24555.5644 -151.5776
-24572.4453 -151.5882
-24589.3404 -151.5989
-24606.2495 -151.6097
-24610.3669 -151.6123
-24623.1737 -151.6205
-24640.1123 -151.6315
-24657.0650 -151.6425
-24674.0319 -151.6535
-24691.0130 -151.6647
-24708.0083 -151.6759
-24725.0177 -151.6872
-24732.8554 -151.6925
-24742.0421 -151.6986
-24759.0814 -151.7101
-24776.1349 -151.7216
-24793.2027 -151.7332
-24810.2848 -151.7449
-24827.3812 -151.7566
-24844.4920 -151.7684
-24856.0116 -151.7764
-24861.6175 -151.7803
-24878.7583 -151.7923
-24895.9136 -151.8043
-24913.0832 -151.8165
-24930.2673 -151.8287
-24947.4659 -151.8409
-24964.6789 -151.8533
-24979.8385 -151.8642
-24981.9066 -151.8657
-24999.1499 -151.8782
-25016.4078 -151.8908
-25033.6803 -151.9034
-25050.9673 -151.9161
-25068.2689 -151.9289
-25085.5852 -151.9418
-25102.9160 -151.9547
-25104.3387 -151.9558
-25120.2628 -151.9677
-25137.6243 -151.9808
-25155.0005 -151.9940
-25172.3914 -152.0072
-25189.7971 -152.0205
-25207.2175 -152.0339
-25224.6527 -152.0473
-25229.5149 -152.0511
-25242.1036 -152.0609
-25259.5697 -152.0745
-25277.0506 -152.0881
-25294.5464 -152.1019
-25312.0570 -152.1157
-25329.5826 -152.1296
-25347.1230 -152.1436
-25355.3697 -152.1502
-25364.6791 -152.1576
-25382.2507 -152.1718
-25399.8373 -152.1860
-25417.4389 -152.2002
-25435.0555 -152.2146
-25452.6871 -152.2290
-25470.3337 -152.2435
-25481.9057 -152.2530
-25487.9959 -152.2580
-25505.6740 -152.2727
-25523.3672 -152.2874
-25541.0756 -152.3022
-25558.7991 -152.3170
-25576.5377 -152.3320
-25594.2915 -152.3470
-25609.1254 -152.3596
-25612.0607 -152.3621
-25629.8463 -152.3772
-25647.6471 -152.3924
-25665.4632 -152.4077
-25683.2945 -152.4231
-25701.1411 -152.4386
-25719.0031 -152.4541
-25736.8804 -152.4697
-25737.0311 -152.4698
-25754.7743 -152.4853
-25772.6837 -152.5011
-25790.6084 -152.5169
-25808.5485 -152.5328
-25826.5041 -152.5487
-25844.4751 -152.5648
-25862.4616 -152.5809
-25865.6251 -152.5837
-25880.4647 -152.5971
-25898.4835 -152.6133
-25916.5179 -152.6297
-25934.5678 -152.6461
-25952.6333 -152.6625
-25970.7143 -152.6791
-25988.8110 -152.6957
-25994.9097 -152.7013
-26006.9242 -152.7124
-26025.0535 -152.7292
-26043.1984 -152.7460
-26061.3591 -152.7629
-26079.5354 -152.7799
-26097.7274 -152.7970
-26115.9352 -152.8141
-26124.8870 -152.8226
-26134.1595 -152.8313
-26152.4002 -152.8486
-26170.6566 -152.8660
-26188.9290 -152.8834
-26207.2171 -152.9009
-26225.5211 -152.9185
-26243.8410 -152.9361
-26255.5591 -152.9475
-26262.1773 -152.9539
-26280.5303 -152.9717
-26298.8993 -152.9895
-26317.2842 -153.0075
-26335.6851 -153.0255
-26354.1020 -153.0436
-26372.5350 -153.0617
-26386.9279 -153.0759
-26390.9842 -153.0800
-26409.4506 -153.0983
-26427.9330 -153.1166
-26446.4315 -153.1351
-26464.9461 -153.1536
-26483.4769 -153.1722
-26502.0238 -153.1909
-26518.9954 -153.2080
-26520.5870 -153.2096
-26539.1677 -153.2284
-26557.7645 -153.2473
-26576.3775 -153.2663
-26595.0069 -153.2853
-26613.6524 -153.3044
-26632.3143 -153.3236
-26650.9925 -153.3429
-26651.7635 -153.3437
-26669.6883 -153.3622
-26688.4005 -153.3816
-26707.1290 -153.4011
-26725.8740 -153.4206
-26744.6353 -153.4402
-26763.4131 -153.4599
-26782.2073 -153.4797
-26785.2337 -153.4829
-26801.0191 -153.4995
-26819.8476 -153.5194
-26838.6926 -153.5394
-26857.5541 -153.5595
-26876.4322 -153.5796
-26895.3268 -153.5998
-26914.2380 -153.6201
-26919.4079 -153.6256
-26933.1668 -153.6404
-26952.1126 -153.6608
-26971.0750 -153.6813
-26990.0541 -153.7019
-27009.0498 -153.7225
-27028.0623 -153.7432
-27047.0914 -153.7640
-27054.2876 -153.7719
-27066.1382 -153.7849
-27085.2022 -153.8058
-27104.2829 -153.8268
-27123.3805 -153.8479
-27142.4949 -153.8690
-27161.6261 -153.8902
-27180.7741 -153.9115
-27189.8743 -153.9217
-27199.9398 -153.9329
-27219.1230 -153.9543
-27238.3230 -153.9758
-27257.5401 -153.9974
-27276.7740 -154.0190
-27296.0249 -154.0408
-27315.2929 -154.0626
-27326.1695 -154.0749
-27334.5784 -154.0844
-27353.8817 -154.1064
-27373.2020 -154.1284
-27392.5395 -154.1505
-27411.8940 -154.1726
-27431.2656 -154.1949
-27450.6543 -154.2172
-27463.1746 -154.2316
-27470.0607 -154.2395
-27489.4851 -154.2620
-27508.9267 -154.2845
-27528.3854 -154.3071
-27547.8615 -154.3297
-27567.3547 -154.3525
-27586.8652 -154.3753
-27600.8908 -154.3917
-27606.3934 -154.3982
-27625.9398 -154.4211
-27645.5036 -154.4441
-27665.0847 -154.4672
-27684.6832 -154.4904
-27704.2990 -154.5137
-27723.9322 -154.5370
-27739.3194 -154.5553
-27743.5832 -154.5604
-27763.2526 -154.5838
-27782.9396 -154.6073
-27802.6439 -154.6309
-27822.3658 -154.6546
-27842.1052 -154.6784
-27861.8621 -154.7022
-27878.4616 -154.7222
-27881.6368 -154.7261
-27901.4303 -154.7500
-27921.2413 -154.7741
-27941.0699 -154.7982
-27960.9162 -154.8223
-27980.7801 -154.8466
-28000.6617 -154.8709
-28018.3184 -154.8926
-28020.5611 -154.8953
-28040.4794 -154.9198
-28060.4155 -154.9443
-28080.3694 -154.9689
-28100.3410 -154.9936
-28120.3303 -155.0184
-28140.3375 -155.0432
-28158.8909 -155.0662
-28160.3627 -155.0681
-28180.4069 -155.0930
-28200.4691 -155.1181
-28220.5491 -155.1432
-28240.6470 -155.1684
-28260.7628 -155.1936
-28280.8966 -155.2190
-28300.1802 -155.2433
-28301.0484 -155.2444
-28321.2196 -155.2698
-28341.4087 -155.2954
-28361.6159 -155.3210
-28381.8411 -155.3467
-28402.0844 -155.3724
-28422.3457 -155.3983
-28442.1872 -155.4236
-28442.6253 -155.4242
-28462.9242 -155.4502
-28483.2414 -155.4762
-28503.5767 -155.5023
-28523.9302 -155.5285
-28544.3019 -155.5548
-28564.6918 -155.5811
-28584.9129 -155.6073
-28585.1000 -155.6075
-28605.5278 -155.6340
-28625.9739 -155.6605
-28646.4383 -155.6872
-28666.9211 -155.7139
-28687.4222 -155.7406
-28707.9417 -155.7675
-28728.3582 -155.7942
-28728.4795 -155.7944
-28749.0372 -155.8213
-28769.6133 -155.8484
-28790.2078 -155.8755
-28810.8208 -155.9027
-28831.4523 -155.9300
-28852.1023 -155.9573
-28872.5240 -155.9844
-28872.7709 -155.9847
-28893.4594 -156.0122
-28914.1664 -156.0397
-28934.8921 -156.0674
-28955.6363 -156.0951
-28976.3992 -156.1228
-28997.1807 -156.1507
-29017.4109 -156.1778
-29017.9810 -156.1786
-29038.8013 -156.2066
-29059.6403 -156.2346
-29080.4981 -156.2627
-29101.3746 -156.2909
-29122.2698 -156.3192
-29143.1839 -156.3476
-29163.0199 -156.3745
-29164.1169 -156.3760
-29185.0700 -156.4044
-29206.0420 -156.4330
-29227.0328 -156.4616
-29248.0426 -156.4903
-29269.0712 -156.5191
-29290.1188 -156.5479
-29309.3516 -156.5743
-29311.1855 -156.5768
-29332.2724 -156.6058
-29353.3784 -156.6349
-29374.5033 -156.6640
-29395.6473 -156.6932
-29416.8104 -156.7225
-29437.9925 -156.7518
-29456.4066 -156.7774
-29459.1939 -156.7812
-29480.4156 -156.8107
-29501.6565 -156.8403
-29522.9166 -156.8699
-29544.1958 -156.8996
-29565.4943 -156.9294
-29586.8119 -156.9592
-29604.1854 -156.9836
-29608.1491 -156.9891
-29629.5067 -157.0191
-29650.8835 -157.0492
-29672.2797 -157.0793
-29693.6952 -157.1095
-29715.1300 -157.1398
-29736.5842 -157.1701
-29752.6886 -157.1929
-29758.0581 -157.2005
-29779.5525 -157.2310
-29801.0663 -157.2616
-29822.5996 -157.2922
-29844.1523 -157.3229
-29865.7245 -157.3537
-29887.3162 -157.3845
-29901.9164 -157.4054
-29908.9279 -157.4154
-29930.5601 -157.4464
-29952.2119 -157.4774
-29973.8832 -157.5086
-29995.5741 -157.5398
-30017.2847 -157.5710
-30039.0149 -157.6024
-30051.8691 -157.6209
-30060.7653 -157.6338
-30082.5363 -157.6653
-30104.3269 -157.6968
-30126.1373 -157.7285
-30147.9675 -157.7602
-30169.8173 -157.7919
-30191.6870 -157.8238
-30202.5468 -157.8396
-30213.5772 -157.8557
-30235.4879 -157.8877
-30257.4184 -157.9197
-30279.3688 -157.9518
-30301.3391 -157.9840
-30323.3293 -158.0163
-30345.3393 -158.0486
-30353.9493 -158.0613
-30367.3702 -158.0811
-30389.4216 -158.1135
-30411.4930 -158.1461
-30433.5844 -158.1787
-30455.6958 -158.2114
-30477.8272 -158.2442
-30499.9786 -158.2770
-30506.0766 -158.2860
-30522.1512 -158.3099
-30544.3443 -158.3429
-30566.5574 -158.3759
-30588.7907 -158.4091
-30611.0442 -158.4423
-30633.3178 -158.4755
-30655.6116 -158.5088
-30658.9284 -158.5138
-30677.9268 -158.5423
-30700.2625 -158.5757
-30722.6184 -158.6093
-30744.9945 -158.6429
-30767.3910 -158.6766
-30789.8077 -158.7103
-30812.2447 -158.7442
-30812.5042 -158.7446
-30834.7036 -158.7781
-30857.1828 -158.8121
-30879.6824 -158.8461
-30902.2023 -158.8802
-30924.7427 -158.9144
-30947.3035 -158.9487
-30966.8035 -158.9783
-30969.8850 -158.9830
-30992.4882 -159.0174
-31015.1118 -159.0519
-31037.7560 -159.0864
-31060.4207 -159.1210
-31083.1060 -159.1557
-31105.8118 -159.1904
-31121.8259 -159.2150
-31128.5386 -159.2253
-31151.2871 -159.2602
-31174.0562 -159.2951
-31196.8459 -159.3302
-31219.6563 -159.3653
-31242.4873 -159.4004
-31265.3391 -159.4357
-31277.5706 -159.4546
-31288.2122 -159.4710
-31311.1069 -159.5064
-31334.0223 -159.5419
-31356.9585 -159.5774
-31379.9155 -159.6130
-31402.8933 -159.6487
-31425.8919 -159.6844
-31434.0371 -159.6971
-31448.9123 -159.7202
-31471.9541 -159.7561
-31495.0168 -159.7921
-31518.1004 -159.8281
-31541.2049 -159.8642
-31564.3303 -159.9004
-31587.4767 -159.9366
-31591.2244 -159.9425
-31610.6453 -159.9729
-31633.8352 -160.0093
-31657.0461 -160.0457
-31680.2780 -160.0822
-31703.5309 -160.1188
-31726.8049 -160.1555
-31749.1318 -160.1907
-31750.1001 -160.1922
-31773.4178 -160.2290
-31796.7567 -160.2659
-31820.1167 -160.3028
-31843.4978 -160.3399
-31866.9002 -160.3769
-31890.3237 -160.4141
-31907.7581 -160.4418
-31913.7689 -160.4513
-31937.2364 -160.4886
-31960.7252 -160.5260
-31984.2352 -160.5634
-32007.7666 -160.6009
-32031.3192 -160.6385
-32054.8933 -160.6762
-32067.1028 -160.6957
-32078.4894 -160.7139
-32102.1076 -160.7517
-32125.7473 -160.7895
-32149.4084 -160.8274
-32173.0909 -160.8654
-32196.7948 -160.9035
-32220.5203 -160.9417
-32227.1651 -160.9523
-32244.2683 -160.9799
-32268.0383 -161.0182
-32291.8297 -161.0565
-32315.6428 -161.0949
-32339.4774 -161.1334
-32363.3336 -161.1720
-32387.2115 -161.2106
-32387.9440 -161.2118
-32411.1124 -161.2493
-32435.0350 -161.2881
-32458.9793 -161.3269
-32482.9453 -161.3658
-32506.9330 -161.4048
-32530.9424 -161.4439
-32549.4384 -161.4740
-32554.9740 -161.4830
-32579.0284 -161.5222
-32603.1047 -161.5615
-32627.2028 -161.6008
-32651.3227 -161.6402
-32675.4644 -161.6797
-32699.6280 -161.7192
-32711.6477 -161.7389
-32723.8143 -161.7588
-32748.0232 -161.7985
-32772.2541 -161.8383
-32796.5069 -161.8781
-32820.7817 -161.9180
-32845.0785 -161.9580
-32869.3973 -161.9980
-32874.5710 -162.0065
-32893.7393 -162.0381
-32918.1037 -162.0783
-32942.4902 -162.1185
-32966.8987 -162.1589
-32991.3294 -162.1993
-33015.7822 -162.2397
-33038.2072 -162.2768
-33040.2572 -162.2802
-33064.7559 -162.3208
-33089.2767 -162.3615
-33113.8197 -162.4022
-33138.3850 -162.4431
-33162.9725 -162.4839
-33187.5823 -162.5249
-33202.5552 -162.5498
-33212.2150 -162.5659
-33236.8709 -162.6070
-33261.5492 -162.6482
-33286.2498 -162.6894
-33310.9727 -162.7307
-33335.7181 -162.7721
-33360.4859 -162.8135
-33367.6143 -162.8254
-33385.2772 -162.8550
-33410.0914 -162.8966
-33434.9281 -162.9382
-33459.7872 -162.9800
-33484.6689 -163.0218
-33509.5731 -163.0636
-33533.3835 -163.1037
-33534.5000 -163.1055
-33559.4508 -163.1475
-33584.4243 -163.1896
-33609.4204 -163.2318
-33634.4391 -163.2740
-33659.4805 -163.3163
-33684.5446 -163.3586
-33699.8612 -163.3845
-33709.6319 -163.4010
-33734.7429 -163.4435
-33759.8767 -163.4861
-33785.0332 -163.5287
-33810.2124 -163.5714
-33835.4145 -163.6142
-33860.6394 -163.6570
-33867.0469 -163.6679
-33885.8883 -163.6999
-33911.1604 -163.7429
-33936.4554 -163.7860
-33961.7733 -163.8291
-33987.1142 -163.8723
-34012.4779 -163.9156
-34034.9392 -163.9539
-34037.8648 -163.9589
-34063.2761 -164.0023
-34088.7104 -164.0458
-34114.1676 -164.0893
-34139.6480 -164.1329
-34165.1514 -164.1766
-34190.6778 -164.2204
-34203.5366 -164.2424
-34216.2282 -164.2642
-34241.8024 -164.3081
-34267.3998 -164.3520
-34293.0204 -164.3961
-34318.6641 -164.4402
-34344.3310 -164.4843
-34370.0212 -164.5286
-34372.8385 -164.5334
-34395.7360 -164.5729
-34421.4742 -164.6173
-34447.2357 -164.6617
-34473.0205 -164.7063
-34498.8287 -164.7508
-34524.6601 -164.7955
-34542.8429 -164.8270
-34550.5154 -164.8402
-34576.3952 -164.8850
-34602.2984 -164.9299
-34628.2250 -164.9749
-34654.1751 -165.0199
-34680.1486 -165.0650
-34706.1456 -165.1101
-34713.5487 -165.1230
-34732.1672 -165.1553
-34758.2128 -165.2006
-34784.2819 -165.2460
-34810.3746 -165.2914
-34836.4909 -165.3369
-34862.6308 -165.3825
-34884.9544 -165.4214
-34888.7945 -165.4281
-34914.9832 -165.4739
-34941.1956 -165.5196
-34967.4317 -165.5655
-34993.6914 -165.6114
-35019.9749 -165.6574
-35046.2821 -165.7035
-35057.0581 -165.7223
-35072.6140 -165.7496
-35098.9703 -165.7958
-35125.3504 -165.8421
-35151.7544 -165.8884
-35178.1822 -165.9348
-35204.6338 -165.9813
-35229.8587 -166.0256
-35231.1094 -166.0278
-35257.6104 -166.0745
-35284.1353 -166.1212
-35310.6841 -166.1679
-35337.2569 -166.2147
-35363.8536 -166.2616
-35390.4744 -166.3086
-35403.3537 -166.3314
-35417.1200 -166.3557
-35443.7904 -166.4028
-35470.4848 -166.4499
-35497.2033 -166.4972
-35523.9459 -166.5445
-35550.7126 -166.5919
-35577.5035 -166.6394
-35577.5422 -166.6394
-35604.3200 -166.6869
-35631.1608 -166.7345
-35658.0257 -166.7822
-35684.9149 -166.8299
-35711.8282 -166.8777
-35738.7658 -166.9256
-35752.4213 -166.9499
-35765.7285 -166.9735
-35792.7162 -167.0215
-35819.7283 -167.0696
-35846.7647 -167.1178
-35873.8254 -167.1660
-35900.9105 -167.2143
-35927.9903 -167.2626
-35928.0199 -167.2627
-35955.1554 -167.3111
-35982.3153 -167.3596
-36009.4996 -167.4082
-36036.7084 -167.4568
-36063.9416 -167.5055
-36091.1994 -167.5543
-36104.2459 -167.5777
-36118.4825 -167.6032
-36145.7909 -167.6521
-36173.1238 -167.7011
-36200.4813 -167.7501
-36227.8635 -167.7993
-36255.2702 -167.8485
-36281.1875 -167.8950
-36282.7016 -167.8977
-36310.1592 -167.9471
-36337.6415 -167.9965
-36365.1485 -168.0460
-36392.6802 -168.0955
-36420.2366 -168.1451
-36447.8177 -168.1948
-36458.8117 -168.2146
-36475.4246 -168.2446
-36503.0569 -168.2944
-36530.7140 -168.3443
-36558.3960 -168.3943
-36586.1027 -168.4443
-36613.8344 -168.4944
-36637.1176 -168.5365
-36641.5911 -168.5446
-36669.3742 -168.5948
-36697.1821 -168.6451
-36725.0150 -168.6955
-36752.8728 -168.7460
-36780.7556 -168.7965
-36808.6634 -168.8471
-36816.1021 -168.8606
-36836.5975 -168.8977
-36864.5569 -168.9485
-36892.5414 -168.9993
-36920.5510 -169.0501
-36948.5857 -169.1011
-36976.6455 -169.1521
-36995.7636 -169.1868
-37004.7309 -169.2032
-37032.8426 -169.2543
-37060.9795 -169.3055
-37089.1415 -169.3568
-37117.3287 -169.4082
-37145.5412 -169.4596
-37173.7789 -169.5111
-37176.0999 -169.5153
-37202.0433 -169.5626
-37230.3332 -169.6143
-37258.6484 -169.6660
-37286.9889 -169.7177
-37315.3547 -169.7696
-37343.7459 -169.8215
-37357.1081 -169.8459
-37372.1633 -169.8735
-37400.6069 -169.9255
-37429.0759 -169.9776
-37457.5703 -170.0298
-37486.0902 -170.0821
-37514.6355 -170.1344
-37538.7869 -170.1787
-37543.2066 -170.1868
-37571.8046 -170.2393
-37600.4281 -170.2918
-37629.0772 -170.3444
-37657.7518 -170.3971
-37686.4520 -170.4498
-37715.1778 -170.5026
-37721.1332 -170.5136
-37743.9306 -170.5555
-37772.7093 -170.6084
-37801.5137 -170.6615
-37830.3437 -170.7145
-37859.1995 -170.7677
-37888.0810 -170.8209
-37904.1449 -170.8505
-37916.9889 -170.8742
-37945.9235 -170.9276
-37974.8839 -170.9810
-38003.8701 -171.0345
-38032.8821 -171.0881
-38061.9199 -171.1417
-38087.8202 -171.1896
-38090.9838 -171.1954
-38120.0750 -171.2492
-38149.1921 -171.3031
-38178.3351 -171.3570
-38207.5041 -171.4110
-38236.6989 -171.4650
-38265.9198 -171.5191
-38272.1559 -171.5307
-38295.1679 -171.5733
-38324.4424 -171.6276
-38353.7429 -171.6819
-38383.0695 -171.7363
-38412.4221 -171.7908
-38441.8008 -171.8453
-38457.1499 -171.8738
-38471.2064 -171.8999
-38500.6389 -171.9546
-38530.0977 -172.0094
-38559.5825 -172.0642
-38589.0936 -172.1191
-38618.6308 -172.1740
-38642.8002 -172.2190
-38648.1946 -172.2290
-38677.7859 -172.2841
-38707.4036 -172.3393
-38737.0474 -172.3945
-38766.7176 -172.4498
-38796.4141 -172.5052
-38826.1369 -172.5606
-38829.1040 -172.5661
-38855.8876 -172.6161
-38885.6648 -172.6717
-38915.4684 -172.7273
-38945.2984 -172.7830
-38975.1548 -172.8388
-39005.0377 -172.8947
-39016.0585 -172.9153
-39034.9481 -172.9506
-39064.8856 -173.0066
-39094.8496 -173.0626
-39124.8401 -173.1188
-39154.8572 -173.1749
-39184.9008 -173.2312
-39203.6620 -173.2664
-39214.9716 -173.2875
-39245.0701 -173.3439
-39275.1952 -173.4004
-39305.3469 -173.4570
-39335.5253 -173.5136
-39365.7304 -173.5702
-39391.9120 -173.6194
-39395.9624 -173.6270
-39426.2226 -173.6838
-39456.5095 -173.7407
-39486.8231 -173.7976
-39517.1635 -173.8547
-39547.5308 -173.9117
-39577.9248 -173.9689
-39580.8055 -173.9743
-39608.3472 -174.0261
-39638.7966 -174.0834
-39669.2729 -174.1408
-39699.7760 -174.1982
-39730.3061 -174.2557
-39760.8631 -174.3133
-39770.3400 -174.3312
-39791.4482 -174.3709
-39822.0608 -174.4286
-39852.7004 -174.4864
-39883.3669 -174.5443
-39914.0606 -174.6022
-39944.7812 -174.6602
-39960.5134 -174.6899
-39975.5297 -174.7182
-40006.3062 -174.7763
-40037.1098 -174.8345
-40067.9406 -174.8928
-40098.7984 -174.9511
-40129.6834 -175.0095
-40151.3232 -175.0504
-40160.5961 -175.0680
-40191.5372 -175.1265
-40222.5055 -175.1851
-40253.5011 -175.2438
-40284.5239 -175.3025
-40315.5739 -175.3613
-40342.7668 -175.4129
-40346.6515 -175.4202
-40377.7579 -175.4792
-40408.8916 -175.5382
-40440.0527 -175.5973
-40471.2411 -175.6564
-40502.4569 -175.7156
-40533.7001 -175.7749
-40534.8414 -175.7771
-40564.9725 -175.8343
-40596.2723 -175.8937
-40627.5996 -175.9532
-40658.9544 -176.0128
-40690.3367 -176.0724
-40721.7464 -176.1321
-40727.5441 -176.1431
-40753.1852 -176.1919
-40784.6519 -176.2517
-40816.1461 -176.3116
-40847.6679 -176.3716
-40879.2173 -176.4317
-40910.7944 -176.4918
-40920.8729 -176.5110
-40942.4003 -176.5520
-40974.0344 -176.6122
-41005.6963 -176.6725
-41037.3858 -176.7329
-41069.1031 -176.7934
-41100.8481 -176.8539
-41114.8250 -176.8806
-41132.6219 -176.9145
-41164.4242 -176.9752
-41196.2544 -177.0359
-41228.1124 -177.0967
-41259.9982 -177.1576
-41291.9119 -177.2185
-41309.3978 -177.2519
-41323.8543 -177.2795
-41355.8255 -177.3406
-41387.8247 -177.4017
-41419.8518 -177.4629
-41451.9068 -177.5242
-41483.9899 -177.5856
-41504.5887 -177.6250
-41516.1015 -177.6470
-41548.2424 -177.7085
-41580.4113 -177.7700
-41612.6082 -177.8317
-41644.8332 -177.8933
-41677.0863 -177.9551
-41700.3949 -177.9997
-41709.3680 -178.0169
-41741.6791 -178.0788
-41774.0183 -178.1408
-41806.3858 -178.2028
-41838.7814 -178.2649
-41871.2052 -178.3271
-41896.8138 -178.3762
-41903.6577 -178.3893
-41936.1397 -178.4517
-41968.6501 -178.5140
-42001.1887 -178.5765
-42033.7557 -178.6390
-42066.3509 -178.7016
-42093.8425 -178.7544
-42098.9748 -178.7642
-42131.6286 -178.8269
-42164.3107 -178.8897
-42197.0212 -178.9526
-42229.7602 -179.0155
-42262.5276 -179.0785
-42291.4783 -179.1342
-42295.3236 -179.1416
-42328.1497 -179.2047
-42361.0043 -179.2679
-42393.8874 -179.3312
-42426.7990 -179.3945
-42459.7392 -179.4579
-42489.7185 -179.5156
-42492.7081 -179.5214
-42525.7073 -179.5849
-42558.7350 -179.6485
-42591.7914 -179.7122
-42624.8764 -179.7759
-42657.9901 -179.8398
-42688.5603 -179.8987
-42691.1326 -179.9036
-42724.3054 -179.9676
-42757.5070 -180.0316
-42790.7374 -180.0957
-42823.9964 -180.1598
-42857.2843 -180.2241
-42888.0008 -180.2833
-42890.6010 -180.2884
-42923.9483 -180.3527
-42957.3244 -180.4171
-43002.4887 -180.5056
