SF_Version 0.9.3
03-Sep-2024 23:12:15
Temp(K) Pressure(MPa) Temp(K) Pressure(MPa)  Points 
256.1641 350.1095 251.1191 207.5930 336.0000
###########################################################
DV (m^3/kg)
2.65792e-05
2.66538e-05
2.67150e-05
2.67764e-05
2.68378e-05
2.68854e-05
2.68993e-05
2.69609e-05
2.70226e-05
2.70844e-05
2.71462e-05
2.72082e-05
2.72702e-05
2.73323e-05
2.73604e-05
2.73945e-05
2.74568e-05
2.75192e-05
2.75817e-05
2.76443e-05
2.77069e-05
2.77697e-05
2.78324e-05
2.78325e-05
2.78954e-05
2.79584e-05
2.80215e-05
2.80847e-05
2.81480e-05
2.82114e-05
2.82748e-05
2.83015e-05
2.83384e-05
2.84021e-05
2.84658e-05
2.85296e-05
2.85936e-05
2.86576e-05
2.87217e-05
2.87679e-05
2.87859e-05
2.88502e-05
2.89146e-05
2.89791e-05
2.90437e-05
2.91084e-05
2.91732e-05
2.92317e-05
2.92380e-05
2.93030e-05
2.93681e-05
2.94332e-05
2.94985e-05
2.95638e-05
2.96293e-05
2.96930e-05
2.96948e-05
2.97605e-05
2.98262e-05
2.98921e-05
2.99580e-05
3.00240e-05
3.00902e-05
3.01520e-05
3.01564e-05
3.02228e-05
3.02892e-05
3.03557e-05
3.04224e-05
3.04891e-05
3.05560e-05
3.06088e-05
3.06229e-05
3.06899e-05
3.07571e-05
3.08243e-05
3.08917e-05
3.09592e-05
3.10267e-05
3.10635e-05
3.10944e-05
3.11621e-05
3.12300e-05
3.12980e-05
3.13661e-05
3.14343e-05
3.15026e-05
3.15162e-05
3.15710e-05
3.16395e-05
3.17081e-05
3.17768e-05
3.18456e-05
3.19145e-05
3.19670e-05
3.19836e-05
3.20527e-05
3.21220e-05
3.21914e-05
3.22608e-05
3.23304e-05
3.24001e-05
3.24160e-05
3.24699e-05
3.25398e-05
3.26099e-05
3.26800e-05
3.27502e-05
3.28206e-05
3.28634e-05
3.28911e-05
3.29617e-05
3.30323e-05
3.31032e-05
3.31741e-05
3.32451e-05
3.33091e-05
3.33163e-05
3.33875e-05
3.34589e-05
3.35304e-05
3.36020e-05
3.36737e-05
3.37456e-05
3.37533e-05
3.38175e-05
3.38896e-05
3.39618e-05
3.40341e-05
3.41065e-05
3.41790e-05
3.41960e-05
3.42517e-05
3.43245e-05
3.43974e-05
3.44704e-05
3.45435e-05
3.46168e-05
3.46373e-05
3.46901e-05
3.47636e-05
3.48373e-05
3.49110e-05
3.49848e-05
3.50588e-05
3.50772e-05
3.51329e-05
3.52072e-05
3.52815e-05
3.53560e-05
3.54306e-05
3.55053e-05
3.55159e-05
3.55801e-05
3.56551e-05
3.57302e-05
3.58054e-05
3.58808e-05
3.59534e-05
3.59563e-05
3.60319e-05
3.61076e-05
3.61835e-05
3.62594e-05
3.63356e-05
3.63897e-05
3.64118e-05
3.64882e-05
3.65647e-05
3.66413e-05
3.67181e-05
3.67950e-05
3.68250e-05
3.68720e-05
3.69492e-05
3.70265e-05
3.71039e-05
3.71815e-05
3.72592e-05
3.72592e-05
3.73370e-05
3.74149e-05
3.74930e-05
3.75713e-05
3.76497e-05
3.76925e-05
3.77282e-05
3.78068e-05
3.78856e-05
3.79645e-05
3.80436e-05
3.81228e-05
3.81248e-05
3.82021e-05
3.82816e-05
3.83612e-05
3.84410e-05
3.85209e-05
3.85563e-05
3.86009e-05
3.86811e-05
3.87614e-05
3.88419e-05
3.89225e-05
3.89870e-05
3.90033e-05
3.90842e-05
3.91653e-05
3.92465e-05
3.93278e-05
3.94093e-05
3.94169e-05
3.94909e-05
3.95727e-05
3.96547e-05
3.97368e-05
3.98190e-05
3.98461e-05
3.99014e-05
3.99839e-05
4.00666e-05
4.01494e-05
4.02324e-05
4.02746e-05
4.03156e-05
4.03989e-05
4.04823e-05
4.05659e-05
4.06497e-05
4.07025e-05
4.07336e-05
4.08177e-05
4.09019e-05
4.09863e-05
4.10709e-05
4.11299e-05
4.11556e-05
4.12404e-05
4.13254e-05
4.14106e-05
4.14960e-05
4.15566e-05
4.15815e-05
4.16671e-05
4.17530e-05
4.18389e-05
4.19251e-05
4.19829e-05
4.20114e-05
4.20979e-05
4.21845e-05
4.22714e-05
4.23583e-05
4.24087e-05
4.24455e-05
4.25328e-05
4.26203e-05
4.27079e-05
4.27958e-05
4.28341e-05
4.28837e-05
4.29719e-05
4.30602e-05
4.31488e-05
4.32374e-05
4.32591e-05
4.33263e-05
4.34153e-05
4.35045e-05
4.35939e-05
4.36834e-05
4.36837e-05
4.37732e-05
4.38631e-05
4.39532e-05
4.40434e-05
4.41080e-05
4.41339e-05
4.42245e-05
4.43153e-05
4.44063e-05
4.44975e-05
4.45320e-05
4.45888e-05
4.46804e-05
4.47721e-05
4.48640e-05
4.49558e-05
4.49561e-05
4.50484e-05
4.51408e-05
4.52335e-05
4.53263e-05
4.53793e-05
4.54194e-05
4.55126e-05
4.56060e-05
4.56996e-05
4.57934e-05
4.58026e-05
4.58874e-05
4.59816e-05
4.60760e-05
4.61706e-05
4.62258e-05
4.62654e-05
4.63604e-05
4.64556e-05
4.65509e-05
4.66465e-05
4.66489e-05
4.67423e-05
4.68383e-05
4.69345e-05
4.70309e-05
4.70719e-05
4.71275e-05
4.72243e-05
4.73213e-05
4.74186e-05
4.74949e-05
4.75160e-05
4.76137e-05
4.77115e-05
4.78096e-05
4.79079e-05
4.79179e-05
4.80064e-05
4.81051e-05
4.82040e-05
4.83031e-05
4.83408e-05
4.84025e-05
4.85021e-05
4.86019e-05
4.86833e-05
